             eV             nm  Absorbance(f)     XX(length)     YY(length)     ZZ(length)      R(length)   XX(velocity)   YY(velocity)   ZZ(velocity)    R(velocity)
         0.9112      1360.6300         0.0003         2.6696         0.7908       -20.4133        -5.6510       -13.5092        -4.1583         3.3965        -4.7570
         1.2242      1012.8000         0.0014       -12.3278      -131.0174         1.3865       -47.3196       -75.3124        -5.0930       -81.7191       -54.0415
         1.2580       985.5800         0.0010       -17.8189        75.3903        42.7551        33.4422        67.1371        14.0483        29.4097        36.8651
         1.3126       944.5700         0.0019        -9.4295        40.5718       -81.4228       -16.7602       -34.6598       -46.9733         8.7612       -24.2906
         1.3745       902.0600         0.0015        16.9229        38.7424       121.8036        59.1563        61.3078        53.9639        21.7698        45.6805
         1.5301       810.2800         0.0005       -15.9443       -47.6389       -34.2290       -32.6041       -38.0402        -5.0264       -13.6525       -18.9064
         1.5969       776.3900         0.0007        49.5233       124.2224      -120.8127        17.6443        43.0918       -34.0064       121.6007        43.5621
         1.6738       740.7200         0.0042       -34.9926        50.0383       -26.4917        -3.8153        26.0889       -33.2464        23.6025         5.4817
         1.7084       725.7300         0.0045       241.8388       -57.6136        -6.4268        59.2662       -30.5886       129.6534        92.0036        63.6895
         1.7493       708.7700         0.0003        14.4321       -74.8011       -21.2644       -27.2111       -57.3359        -7.8712       -52.9217       -39.3762
         1.8736       661.7500         0.0043        -7.7851        12.7296      -288.1967       -94.4174      -163.1607      -146.7042        14.7963       -98.3562
         1.8962       653.8600         0.0035         0.3738        40.5822      -138.1373       -32.3938       -58.9253       -70.3514        20.8630       -36.1379
         1.9844       624.7900         0.0063      -447.1785        60.7685         6.8136      -126.5321        38.0169      -243.0600      -211.9681      -139.0037
         2.0329       609.8900         0.0064       307.6098       -36.7780        30.8147       100.5488         7.3908       166.0945       164.5361       112.6738
         2.1215       584.4300         0.0008        -0.5809       -71.3462       -93.0300       -54.9857      -111.6865       -36.0687       -29.3746       -59.0432
         2.1334       581.1500         0.0110        40.7278        28.6142       -16.1894        17.7175        -9.7217        23.8318        43.4850        19.1984
         2.2129       560.2800         0.0048        12.5916       -33.0357        94.7457        24.7672        57.5871        38.9647        -0.3783        32.0578
         2.2666       547.0100         0.0036       -59.0031       215.7865       -21.1024        45.2270       112.8044       -54.2868        64.4855        41.0010
         2.2807       543.6300         0.0037       -80.2273       -23.4327        15.3234       -29.4455        -1.5893       -27.5291       -58.9275       -29.3486
         2.3126       536.1100         0.0001         3.9515        -2.3944       -51.5882       -16.6770       -33.2073       -12.3845       -10.3655       -18.6524
         2.3171       535.0800         0.0270       128.9855        56.0654        62.4403        82.4970        54.5899        94.4479       127.7489        92.2623
         2.3399       529.8800         0.0107       -81.0858        99.3358      -102.3334       -28.0278        56.9260      -117.6665       -33.5462       -31.4289
         2.6293       471.5500         0.0117       117.8288        18.9088       -14.4402        40.7658       -11.1339        70.3005        68.8636        42.6767
         2.6356       470.4200         0.0028        -6.9515         6.2091         3.4432         0.9003        12.5062         4.3948        -2.7510         4.7167
         2.6673       464.8200         0.0037        80.3667       -43.0135       -63.2332        -8.6267       -75.9226        27.0689        17.5802       -10.4245
         2.7147       456.7100         0.0090        57.1700       -10.7257        -5.3052        13.7130        -7.3192        35.0172        11.2637        12.9872
         2.7901       444.3700         0.0184        38.5098       -15.8511        -3.3731         6.4285       -94.9802        24.2740        87.8262         5.7067
         2.8206       439.5700         0.0048        17.7712       -73.1285        13.8493       -13.8360       -32.1174         7.0619       -17.6080       -14.2212
         2.8464       435.5800         0.0043        -7.8670       -59.7641        23.6450       -14.6621       -10.3633        37.2294       -73.8097       -15.6479
         2.9011       427.3700         0.0058        -7.2003       -18.9407        19.8826        -2.0861       -28.9231        13.4291        10.1949        -1.7663
         2.9707       417.3600         0.0043       -56.4244         0.9276       -22.9188       -26.1385         2.7003       -51.0781       -26.6350       -25.0043
         3.0743       403.2900         0.0015         2.4229        24.2284        -1.4881         8.3877        11.1426         0.0084        14.9584         8.7032
         3.0868       401.6500         0.0057        31.5871        27.8768      -165.9906       -35.5089      -103.2100       -57.8835        28.8657       -44.0759
         3.1379       395.1100         0.0093        49.7265       -13.1718        49.1468        28.5672         8.7575        48.3153        20.2649        25.7792
         3.1560       392.8600         0.0112        -7.3353       -95.8853       -98.8583       -67.3596       -94.6366       -62.9193       -66.9483       -74.8347
         3.2043       386.9400         0.0110        18.6919       -14.7263        26.3409        10.1022         0.5240        17.8321        11.2160         9.8573
         3.2268       384.2300         0.0166        43.0520       166.4894        -4.5981        68.3145       134.5164        17.9395        52.4583        68.3047
         3.2491       381.5900         0.0040        -1.3669         4.4960        -2.8302         0.0996        12.4143       -17.3959         0.7844        -1.3991
         3.2940       376.3900         0.0022         2.1270       -51.3998         5.6950       -14.5259       -47.9581         2.2690        -0.2576       -15.3156
         3.2967       376.0800         0.0273        20.1746         4.4689        20.7120        15.1185         9.5459        12.7853        24.5052        15.6121
         3.3672       368.2100         0.0199       -43.3105        -7.6381        98.2532        15.7682        73.2885        -5.8518       -17.9445        16.4974
         3.3866       366.1000         0.0112       -36.2159        -3.0065       -12.8212       -17.3479       -12.6364       -19.2213       -20.4101       -17.4226
         3.4176       362.7900         0.0124         4.8860        11.3195       -17.1115        -0.3020        -5.9346         0.6161        -2.1526        -2.4904
         3.4289       361.5800         0.0140        -1.2907       -32.8522       -13.3717       -15.8382       -31.4888        -2.2404       -16.3559       -16.6950
         3.4435       360.0500         0.0727       -96.6635        21.8263       -38.3072       -37.7148       -11.1592       -79.2967       -31.3323       -40.5961
         3.4552       358.8300         0.0326       -10.2255        58.9997        15.4330        21.4024        48.1043        18.0702         5.0271        23.7339
         3.4831       355.9600         0.1224       272.6222       102.4941       -21.6213       117.8317        80.9807       199.1244        90.5518       123.5523
         3.4970       354.5400         0.0300       -21.8601        22.4035        14.0566         4.8667        14.8060        12.3788        -8.2452         6.3132
         3.5364       350.6000         0.0728       -22.9817        76.5889         5.1042        19.5704        73.9702       -34.8627        19.3253        19.4776
         3.5447       349.7800         0.0198        62.4186        40.1713        -0.5732        34.0056         2.5595        47.2745        57.3258        35.7200
         3.5488       349.3700         0.0375        -6.1597        13.6374         8.9139         5.4639         8.1059        31.4329       -28.1861         3.7842
         3.5560       348.6600         0.0395       -91.7581         0.6065         0.4829       -30.2229        -0.4440       -63.2894       -30.0716       -31.2683
         3.5947       344.9100         0.0080         0.0190       -14.3947        -6.0296        -6.8018        -8.1064         2.9755       -17.8871        -7.6727
         3.6164       342.8400         0.0206       -52.2662       120.2365        -0.4803        22.4967        50.7753       -30.7234        55.1731        25.0750
         3.6189       342.6000         0.0701         1.4503        21.4760        -8.8112         4.7050         8.4390         1.1009         3.1985         4.2461
         3.6542       339.3000         0.0358       -84.0531        47.4867        49.3128         4.2488        79.8861       -39.6189       -29.9590         3.4361
         3.6736       337.5000         0.0743      -215.5290        19.0296        24.7440       -57.2518        26.3107       -81.4252      -115.9577       -57.0241
         3.6974       335.3300         0.0134         0.2597        48.9926         0.7611        16.6711         0.3330         3.1952        49.3095        17.6126
         3.7047       334.6700         0.0175        13.8623        -3.4767       -17.8054        -2.4733       -12.9072        -0.2610         3.9615        -3.0689
         3.7208       333.2200         0.0071         6.4679        46.7227        -5.1034        16.0291        26.2806        10.3856        17.8092        18.1584
         3.7342       332.0300         0.0338       -27.4104         8.2342        57.0449        12.6229        58.7254        18.6076       -22.9574        18.1252
         3.7547       330.2100         0.0248        74.9704        84.3815         8.3188        55.8902        34.5580        49.3963        94.0027        59.3190
         3.7674       329.1000         0.0112         1.0372        27.8490        28.0147        18.9670        42.6244         8.2784         9.0995        20.0008
         3.7835       327.7000         0.0616       116.2251        -1.9510        -2.2387        37.3451         1.4996        84.3444        39.9530        41.9323
         3.7938       326.8100         0.1162      -314.4227        13.3806        52.0504       -82.9973        44.2581      -190.1870      -106.3211       -84.0833
         3.8005       326.2400         0.0527      -157.1594         1.9142       -17.9064       -57.7172        -0.2450      -105.5402       -80.2980       -62.0277
         3.8149       325.0000         0.0634        31.6949        -8.5759        -0.9827         7.3788        -4.6495        -5.9184        33.7646         7.7322
         3.8268       323.9900         0.0456        14.0901       -23.3617       -51.6767       -20.3161       -54.2864         3.3024       -11.4526       -20.8122
         3.8391       322.9500         0.0647       -25.2835        68.8785       -58.4046        -4.9365         3.0343       -39.4423        21.9620        -4.8153
         3.8578       321.3900         0.1107         4.7766       -15.0966        -9.9834        -6.7678        -2.1882       -42.7036        29.1390        -5.2509
         3.8781       319.7100         0.0545        -3.8700      -110.6366        -7.7568       -40.7545        22.0018       -22.2735      -129.6408       -43.3042
         3.8908       318.6600         0.0109        -0.0047        20.4368        42.7794        21.0705        60.1879        24.3522       -13.0505        23.8299
         3.9127       316.8800         0.0706        -8.6413        -2.0947         9.0879        -0.5494        25.7422        -2.7825       -23.7670        -0.2691
         3.9225       316.0800         0.0622        37.7534        -0.3569        16.6337        18.0101        59.2458       -12.0450         7.9895        18.3967
         3.9392       314.7400         0.0896       -16.7340       166.8433       -22.5226        42.5289       -28.1320        35.9823       130.6829        46.1777
         3.9514       313.7800         0.0693       -81.8580       -76.9535       -13.2776       -57.3630       -48.6932       -55.7507       -77.7741       -60.7394
         3.9620       312.9300         0.1217        20.4244        69.2151       -37.6478        17.3305         7.7001       -13.2300        56.6036        17.0245
         3.9731       312.0600         0.0279        19.5079        -6.8102      -139.8611       -42.3878       -94.3691       -42.8255         9.3374       -42.6191
         3.9787       311.6200         0.0063         9.3375        -0.3566        26.4335        11.8048        22.0510        19.8470        -5.3886        12.1698
         3.9830       311.2800         0.0444        -6.7081        11.3828        14.4932         6.3893        49.8986         6.1157       -32.4540         7.8534
         3.9966       310.2300         0.0179         0.0439        71.5341        38.1481        36.5754        26.2505        35.1239        47.9474        36.4406
         4.0091       309.2600         0.0781         0.8114       -63.2655       -19.6814       -27.3785       -86.6016        -5.1810        13.2436       -26.1797
         4.0270       307.8800         0.0623       -20.4986      -115.6947       -32.1438       -56.1124       -54.4937       -21.7242       -97.7494       -57.9891
         4.0363       307.1700         0.0086        -8.2050         0.5687        72.1867        21.5168        36.6637        39.3649        -2.7619        24.4222
         4.0473       306.3300         0.0145       -28.3564        -6.6036        63.4219         9.4873        41.2554        -3.0065        -8.8260         9.8076
         4.0604       305.3500         0.1118         4.8300      -164.7145        53.8925       -35.3307       -15.4562         4.0313       -99.6789       -37.0346
         4.0685       304.7400         0.0244        29.0299         0.1945      -108.6088       -26.4615       -70.0396       -29.2287        18.2650       -27.0011
         4.0862       303.4200         0.0296        20.8824       -41.3995         6.5137        -4.6678       -41.8068        23.1165         2.8994        -5.2636
         4.0924       302.9600         0.0380        -4.0894       -79.2058       -59.5415       -47.6123       -99.3161       -47.7516       -14.0975       -53.7217
         4.0975       302.5900         0.0397         8.8708       150.5727       -42.0731        39.1235       127.0678       -15.5251        10.5972        40.7133
         4.0986       302.5100         0.0469        16.8065         9.1044       131.5231        52.4780         9.1282       142.2581        15.9513        55.7792
         4.1114       301.5600         0.0081       -10.7524       -51.8963        29.9676       -10.8937        -4.6068       -16.1942       -13.2561       -11.3524
         4.1221       300.7800         0.0547        -1.1797        -0.4750       -17.5211        -6.3919        -7.8032        -9.1747        -3.6655        -6.8811
         4.1281       300.3400         0.0369        -1.2005       105.8999        41.7142        48.8045       103.0951         7.9218        44.5340        51.8503
         4.1355       299.8000         0.0156       -14.3009         0.4080       -75.1976       -29.6969       -53.0637       -35.1712        -4.8692       -31.0347
         4.1599       298.0400         0.0497        -5.6882       136.5857       148.8454        93.2477       118.6389        99.2254        75.7454        97.8699
         4.1655       297.6500         0.0340         0.4087       110.6308        88.0316        66.3570       120.5507        41.2305        46.0636        69.2816
         4.1815       296.5100         0.0272       -13.6907        -2.1356        29.4290         4.5342       -32.1763        54.5343        -5.9165         5.4805
         4.1852       296.2500         0.0754       111.7828        -0.8444      -253.7560       -47.6059       -91.3135      -121.2814        57.9865       -51.5361
         4.1882       296.0300         0.0444       -47.5242        18.0958        17.0527        -4.1252        17.8695       -13.1132       -18.5637        -4.6024
         4.1967       295.4300         0.0517         7.1578       -44.2500         6.2595       -10.2776       -18.2418         4.0717       -18.4955       -10.8885
         4.2024       295.0400         0.0065         0.2457        18.1272       -30.0422        -3.8898       -22.0691        -7.2141         9.4822        -6.6003
         4.2131       294.2800         0.0297         9.4977         1.4345      -107.6261       -32.2313       -67.7589       -41.9718         9.2759       -33.4849
         4.2191       293.8600         0.0103       -24.3747       -46.6528        44.5371        -8.8301         5.5683        -7.0263       -20.4193        -7.2924
         4.2289       293.1800         0.0013         3.8036         3.6347         0.9608         2.7997         0.5304         2.2648         1.6417         1.4790
         4.2314       293.0100         0.0055        -0.1716        -1.5194       -28.4199       -10.0370       -30.0809         4.2656        -2.9624        -9.5926
         4.2349       292.7700         0.0913        -0.7595         4.9273       -14.7315        -3.5212        -5.5883       -22.2272        15.3944        -4.1404
         4.2503       291.7100         0.0023       -13.2257       -18.2954        27.9316        -1.1965        -8.0470         7.9133        -4.8208        -1.6515
         4.2507       291.6800         0.0037        18.9934        -3.7657        26.6373        13.9550        18.6701        23.9343         0.3129        14.3057
         4.2605       291.0100         0.0474        -9.6486      -178.1574        42.2800       -48.5087       -62.8667        17.9608      -115.3461       -53.4173
         4.2676       290.5200         0.0147         5.4916        42.2545       -76.1613        -9.4717       -15.9812       -49.7235        43.9464        -7.2528
         4.2759       289.9600         0.0173        -6.0359        -0.6450       -84.0295       -30.2368       -56.9802       -35.8214        -4.5238       -32.4418
         4.2857       289.3000         0.0239        -8.8069         7.7428       -43.0036       -14.6893        -4.6642       -28.9734       -10.4548       -14.6975
         4.2918       288.8900         0.0156        -4.0177       -67.8172         3.3784       -22.8188       -37.8619        -5.0621       -26.3840       -23.1027
         4.2953       288.6500         0.0539       -12.2004        56.3030         2.2949        15.4658        -9.2953        -8.8523        67.8130        16.5551
         4.3098       287.6800         0.0204        86.0502       -61.8405        -0.2920         7.9726       -41.1819        36.1188        24.3794         6.4388
         4.3156       287.2900         0.0450        -1.3491       -74.4328        16.3750       -19.8023        13.6604        24.8466      -101.2361       -20.9097
         4.3236       286.7600         0.0030       -20.6165         0.8716         5.0854        -4.8865         6.5368       -12.2934        -6.2988        -4.0185
         4.3246       286.6900         0.0066        -4.2060        14.4150       -14.7066        -1.4992       -17.9490         3.0759         9.2003        -1.8909
