             eV             nm  Absorbance(f)     XX(length)     YY(length)     ZZ(length)      R(length)   XX(velocity)   YY(velocity)   ZZ(velocity)    R(velocity)
         0.6670      1858.8600         0.0004       -23.1268        74.8908        56.3215        36.0285       101.9009        32.3005        38.1776        57.4597
         0.7827      1584.0700         0.0000        -5.7318       -31.0906        48.2866         3.8214         5.9185        40.3899       -31.9491         4.7864
         0.8852      1400.7000         0.0018       -14.6103      -203.6327         8.1768       -70.0220      -122.6457        -8.1749      -118.5643       -83.1283
         0.9775      1268.3300         0.0006        67.2777       -51.7151       137.2963        50.9530        45.6042       100.0637       -25.8053        39.9542
         1.0177      1218.3000         0.0002       -52.9643       -29.3214         6.3433       -25.3141       -19.4762       -42.6896       -44.1148       -35.4268
         1.0877      1139.8400         0.0003       -38.5631       -58.7280        -1.1813       -32.8241       -28.6860       -16.5104       -43.0701       -29.4222
         1.1643      1064.8600         0.0009       -91.4796        -6.1769       -45.8490       -47.8352       -22.5486       -62.2038       -45.3044       -43.3523
         1.1901      1041.7900         0.0017         4.7355      -165.9421       -59.8310       -73.6792      -116.4043       -26.5591       -85.4789       -76.1474
         1.2468       994.4000         0.0029       117.9197        17.9053       -91.6498        14.7250       -30.2922         5.9641        58.0392        11.2370
         1.3095       946.8300         0.0051       212.5416       -40.2383        -5.8890        55.4714       -24.0228       129.7707        95.6560        67.1347
         1.3375       926.9500         0.0013        -8.3843      -160.3233       113.6950       -18.3375       -26.2492        51.1473       -81.8776       -18.9932
         1.3769       900.4500         0.0048        75.5261        24.0174        82.1832        60.5756        51.1370        81.0923        53.6372        61.9555
         1.4068       881.3100         0.0006        -0.2456        -8.3737         5.7314        -0.9626        -9.1467         3.3774         3.2095        -0.8533
         1.4355       863.6800         0.0005       -10.9525       -66.8285        18.7187       -19.6874       -26.2589         1.2774       -37.4173       -20.7996
         1.5019       825.5200         0.0014        -7.5234        -1.0791        -4.1273        -4.2432        -1.9387        -5.8016        -4.5466        -4.0956
         1.5288       811.0000         0.0013        30.6969       -31.3416        10.5194         3.2915        -8.1302        22.9712        -2.4808         4.1201
         1.5742       787.6200         0.0030       -38.3014         9.4217        19.1760        -3.2346        19.5384       -16.7566       -13.9266        -3.7150
         1.6162       767.1200         0.0000         1.7581        -0.3402         0.0376         0.4852        -0.6533        -0.2961         0.4066        -0.1809
         1.6495       751.6200         0.0012        16.7953       -71.8977        33.1285        -7.3246       -16.2420        28.3350       -29.1940        -5.7003
         1.6986       729.9000         0.0012        30.2191         3.6594       -14.5105         6.4560       -10.5447        21.6427         8.7185         6.6055
         1.7601       704.4000         0.0004         6.5522       -26.9581         6.1504        -4.7518         5.5174         4.3682         9.0161         6.3006
         1.8197       681.3400         0.0058        46.8640       -27.9684        17.6713        12.1890       -15.6097        50.3572        10.8524        15.2000
         1.8504       670.0300         0.0067      -121.8856        32.5050         0.5569       -29.6079        25.7048       -70.9616       -49.5301       -31.5956
         1.9137       647.8700         0.0031        24.8538         0.5201      -163.6942       -46.1068       -99.1497       -68.3273         4.9176       -54.1865
         1.9801       626.1500         0.0026        41.6516        -2.4702        43.1657        27.4490        24.0407        30.7946        23.9396        26.2583
         2.0213       613.3900         0.0008       -31.6614        51.4179        -1.6770         6.0265        35.3148       -21.4976         6.4864         6.7679
         2.0662       600.0500         0.0065         6.2537        -2.1349       184.7867        62.9685        82.7205        71.8315       -16.2204        46.1105
         2.1154       586.0900         0.0273       280.5207       -14.3847        -9.3674        85.5895       -13.7398       188.9603        96.6168        90.6124
         2.1393       579.5600         0.0074        -0.9986        85.3015        87.0554        57.1194       120.8694        31.5703        33.1811        61.8736
         2.1570       574.7900         0.0136       258.5814        -3.6258       -19.1611        78.5981        -6.7727       150.9192       103.8159        82.6542
         2.1619       573.4900         0.0145       191.8057        -0.4547        32.7022        74.6844        25.2859       134.6700        80.9700        80.3086
         2.2254       557.1400         0.0520       389.6304        -3.0116        84.0875       156.9021        48.4747       255.8481       179.7160       161.3463
         2.2603       548.5300         0.0129        81.4225       -11.5694        58.4759        42.7763        29.1853        64.4789        43.4941        45.7194
         2.3061       537.6300         0.0014        -3.6064        74.0338        64.0821        44.8365        86.5463        20.8681        41.8212        49.7452
         2.3636       524.5500         0.0002         6.7921        16.3477        -4.7258         6.1380        10.1828         2.0266        13.9978         8.7357
         2.3900       518.7600         0.0254       -75.3643       -71.2247        40.9098       -35.2264       -25.6381       -30.0627       -60.0601       -38.5870
         2.4202       512.2800         0.0062       114.9719        -2.7899       -89.8203         7.4539       -65.1650        30.2091        63.9957         9.6799
         2.4730       501.3600         0.0063       -82.5534         2.8894        18.7346       -20.3098         5.3625       -23.5737       -46.9873       -21.7328
         2.4898       497.9600         0.0022       -13.3344         6.5781        19.3493         4.1977        24.8337         3.5694         1.2265         9.8765
         2.5057       494.8200         0.0052       -18.2533       -57.1267        -9.8812       -28.4204       -59.5544       -11.2829       -26.5098       -32.4490
         2.5479       486.6200         0.0081        10.0701       -26.5901        -2.5864        -6.3688       -14.6289       -13.1310         4.4332        -7.7755
         2.5942       477.9300         0.0257      -144.3959        13.2770       -48.2368       -59.7853       -84.5601       -87.6814       -34.0519       -68.7645
         2.6178       473.6200         0.0189      -250.9622       -42.8144       -73.6810      -122.4858       -81.5055      -164.1786      -139.7925      -128.4922
         2.6282       471.7500         0.0044       -90.7349       -74.0630         3.6229       -53.7250       -43.0834       -53.2730       -88.8103       -61.7222
         2.6669       464.9000         0.0426      -237.1023      -142.2660       -72.7019      -150.6901      -113.7960      -134.6524      -229.7925      -159.4136
         2.6720       464.0200         0.0131      -114.8617       -33.9341        55.2087       -31.1957        11.9292       -44.8257       -77.3496       -36.7487
         2.6973       459.6600         0.0188      -124.4982        -1.7817        84.2719       -14.0027        83.3331       -47.4027       -77.4111       -13.8269
         2.7141       456.8100         0.0120        95.0633       -23.6710        84.2946        51.8956        72.0645        99.4297        55.9069        75.8004
         2.7355       453.2500         0.0156        31.0542         7.1789        71.6658        36.6330        51.7334        60.1529        28.2793        46.7219
         2.7713       447.3800         0.0106        45.2870        -0.6831        11.9660        18.8567         5.4428        36.0159        23.8030        21.7539
         2.8156       440.3400         0.0166       -39.7654      -133.1612        93.7398       -26.3956       -21.2415        35.7325       -97.7699       -27.7596
         2.8472       435.4500         0.0042        21.7598       -31.3731         4.4861        -1.7091        -9.6176         5.7493        -2.9425        -2.2703
         2.8619       433.2300         0.0006        -3.4103       -29.7474         1.6354       -10.5075       -18.8625        -8.8849        -8.2384       -11.9953
         2.8994       427.6200         0.0155         4.1136        33.5425      -354.7508      -105.6982      -186.5742      -208.6301        29.2039      -122.0001
         2.9260       423.7300         0.0033        35.2564        31.5927       -26.9991        13.2834         4.4550        -4.7015        37.8105        12.5214
         2.9532       419.8300         0.0148        72.4523        86.4813        14.6790        57.8709        22.5176        52.3469       104.4378        59.7674
         2.9736       416.9500         0.0233        75.9827         4.8270      -259.9103       -59.7002      -165.5715      -112.9655        55.0331       -74.5013
         3.0294       409.2800         0.0152       -12.9743       -42.1249         0.8484       -18.0836       -43.5779        -1.9519       -13.6120       -19.7139
         3.0532       406.0700         0.0155       -15.6213      -389.6639        -0.6103      -135.2985      -303.0195       -16.4907      -168.1000      -162.5367
         3.0737       403.3700         0.0114        20.6299       -85.8866       -58.7954       -41.3507      -103.7433       -43.4952        13.3088       -44.6432
         3.1216       397.1900         0.0470        73.7998       -49.7532        56.2858        26.7775        22.0422        42.7069        41.3553        35.3681
         3.1723       390.8300         0.0518        44.2204      -140.4379        11.9254       -28.0973       -57.2526        27.9152       -62.6363       -30.6579
         3.2231       384.6700         0.0167        45.0553        56.7359        -3.4816        32.7699        13.5764        27.0915        64.0747        34.9142
         3.2361       383.1300         0.1010       -12.4024       -84.2227        29.5066       -22.3728       -69.2105        11.0382       -12.7372       -23.6365
         3.2736       378.7400         0.1265        17.9354       -64.1290        15.8962       -10.0991       -27.0574        50.4292       -66.7219       -14.4500
         3.3092       374.6600         0.0364       -27.3527       -23.6555        30.7352        -6.7577        10.1320         7.2298       -36.9212        -6.5198
         3.3446       370.7000         0.5915       191.6736        20.4373      -204.4749         2.5454       -48.1282        16.0856        31.6944        -0.1161
         3.3508       370.0200         0.0135         0.1897        -0.3826         5.7320         1.8464        52.7482       -46.1167        -0.3356         2.0986
         3.3798       366.8400         0.2847      -311.6734        -6.1678        -0.0232      -105.9548       -13.4013      -119.9709      -195.0990      -109.4904
         3.4003       364.6300         0.0565       134.6699        58.2085        -1.7066        63.7239        42.3539        63.1448        91.3471        65.6152
         3.4173       362.8200         0.0009         0.6113         2.4980       -39.0300       -11.9736       -24.5411       -17.7437         1.2400       -13.6816
         3.4334       361.1100         0.0109        19.0652        41.7200        18.5886        26.4579        44.3796        14.2508        23.5632        27.3979
         3.4610       358.2400         0.0625       132.2020        -2.8485       -24.3804        34.9910        -9.5381        74.8446        40.0062        35.1042
         3.4709       357.2100         0.0044       -17.9590        -0.2247        -0.2783        -6.1540         1.3346        -7.3254       -12.6515        -6.2141
         3.4971       354.5400         0.0075        -1.9856         5.5681        29.5830        11.0552        31.2890        -1.6914         5.2227        11.6068
         3.5231       351.9200         0.2023       191.5240       -59.5182       257.6169       129.8742       164.6423       241.1639        -0.9197       134.9622
         3.5256       351.6700         0.0190       -23.6224         2.0819        -0.9442        -7.4949         8.1041       -10.8410       -20.4474        -7.7281
         3.5506       349.1900         0.0054         0.1349        16.6409        31.7717        16.1825        38.5553        21.9689        -5.5383        18.3286
         3.5533       348.9300         0.0479       -41.8433        -8.8983       -10.3272       -20.3563       -69.7562       -24.8879        30.0090       -21.5450
         3.5661       347.6700         0.0164       -18.3586       -49.2525        93.0386         8.4758        38.0629        18.3188       -35.5015         6.9601
         3.5746       346.8500         0.0114         5.6019        19.1355        42.4271        22.3882        49.1113        17.2515        11.1001        25.8210
         3.5847       345.8700         0.2535      -137.9475       -68.8061         8.1532       -66.2001       -78.4006        92.5086      -220.6640       -68.8520
         3.6053       343.8900         0.0115        -4.5807       -13.5189         6.2219        -3.9592       -20.8099         3.7356         5.8019        -3.7575
         3.6163       342.8500         0.0067       -11.0774        -0.0697        -3.7279        -4.9583         0.4713        -9.2867        -6.4588        -5.0914
         3.6179       342.7000         0.0123        22.2619        14.4347        41.2986        25.9984        48.2523         8.1350        28.3427        28.2433
         3.6358       341.0100         0.0385        -3.0841       -39.9019        74.3895        10.4679        22.9775        54.4735       -37.2038        13.4157
         3.6413       340.4900         0.0728       -53.7568       109.4142        32.1006        29.2527        86.3438        13.6568         4.3963        34.7990
         3.6551       339.2100         0.0243       -20.1896        -4.9949        44.2183         6.3446        44.8838        13.9857       -32.0994         8.9233
         3.6647       338.3200         0.0451        10.4813         1.7256       -58.7205       -15.5046        18.8459       -40.4850       -30.2236       -17.2876
         3.6742       337.4500         0.0144       -64.0936        19.1283         0.6591       -14.7687        22.1271       -31.9450       -34.4505       -14.7562
         3.6797       336.9400         0.0136        19.1291        59.6663        77.2871        52.0275       111.0050        32.7427        27.4685        57.0721
         3.6968       335.3900         0.0155       -19.3749        -2.6621        15.5586        -2.1595         6.8712         4.1647       -15.8199        -1.5947
         3.6993       335.1500         0.0610      -194.2345       -13.2399         9.2222       -66.0840        -6.2044       -89.6215      -108.4990       -68.1083
         3.7211       333.1900         0.0733      -145.3566       -36.2126       105.4179       -25.3838       -59.7053        50.1849       -50.7796       -20.1000
         3.7286       332.5200         0.0104        25.1762       -96.1244         4.6370       -22.1037       -54.6414        13.1914       -25.8728       -22.4409
         3.7363       331.8400         0.0087        20.1075        -0.7817        57.7101        25.6787        60.1585        18.9254         1.9541        27.0126
         3.7444       331.1200         0.0023        -1.6387        -3.5927         8.0398         0.9361         8.0332        -1.1676        -4.7766         0.6964
         3.7482       330.7800         0.0201       -14.9778       -42.8975        -4.8028       -20.8927       -22.7152       -24.8219       -20.1458       -22.5610
         3.7616       329.6000         0.0064        24.6563         1.6455         2.0332         9.4450        -2.1024        30.5923        -0.6013         9.2962
         3.7702       328.8500         0.0351      -101.8107        27.9078       134.5142        20.2038       196.1328      -104.1856       -29.7315        20.7386
         3.7756       328.3900         0.0204       -68.1525       -52.7783        -8.0231       -42.9846       -39.6894       -39.0991       -52.8433       -43.8773
         3.7903       327.1000         0.0225      -107.3719        -9.5183         5.6773       -37.0710       -11.8614       -57.1622       -41.2669       -36.7635
         3.7943       326.7700         0.0248        75.0867        54.6500        60.6588        63.4651        51.9774        69.3023        79.2884        66.8560
         3.7996       326.3100         0.0266        34.7542        -9.4567         6.6310        10.6428        -7.1654        16.3060        16.1420         8.4276
         3.8066       325.7100         0.0438      -193.7153        33.1567        96.0124       -21.5154        51.5811       -29.3751       -76.4229       -18.0723
         3.8218       324.4100         0.0444      -146.1339       -17.7206        60.4612       -34.4644        31.4281       -74.7280       -66.2424       -36.5141
         3.8304       323.6900         0.0755        13.9045       -47.6702        10.4024        -7.7878       -19.5420        11.9641       -20.8951        -9.4910
         3.8385       323.0000         0.0071        69.5264       -43.5280         0.3368         8.7784       -24.4595        33.1534        17.6028         8.7656
         3.8426       322.6600         0.0100       -33.2862        34.4007       -65.8422       -21.5759       -51.7129       -30.0690         8.7389       -24.3477
         3.8450       322.4600         0.0244       131.7104       -16.1249       -15.1444        33.4804      -117.0994        71.3448       143.2113        32.4855
         3.8557       321.5600         0.0588        75.7248       -38.2001        31.9698        23.1649       -24.5475        48.7906        42.8605        22.3678
         3.8642       320.8500         0.0180       -55.1158       -33.0348        33.4181       -18.2441         5.6689       -23.1246       -39.3685       -18.9414
         3.8742       320.0200         0.0082       -17.3402       128.4731         3.2987        38.1438        99.2951        -9.4955        43.0239        44.2745
         3.8836       319.2500         0.0330        25.4874       -86.1841       -21.4460       -27.3809      -119.0980        27.8512         8.4964       -27.5835
         3.8921       318.5500         0.0079       -15.3831       -12.3359       -11.6661       -13.1284        -4.2671        -9.6809       -30.1409       -14.6963
         3.8989       318.0000         0.0059        -3.5968        32.9615        11.5569        13.6405       -21.1882        10.3020        54.5145        14.5428
         3.9115       316.9700         0.0088       -32.2194        35.6920        -7.4689        -1.3321        -1.0016       -14.8456        13.4928        -0.7848
         3.9172       316.5100         0.0401       -10.4575       -22.0379        77.9631        15.1559        55.0394        11.0118       -16.4922        16.5197
         3.9260       315.8000         0.0489        74.4936       -11.1115        66.8987        43.4269       132.2034       -31.7643        36.1215        45.5202
