             eV             nm  Absorbance(f)     XX(length)     YY(length)     ZZ(length)      R(length)   XX(velocity)   YY(velocity)   ZZ(velocity)    R(velocity)
         0.3290      3767.9900         0.0000        -0.0061         0.0022         1.7386         0.5782        -3.5010        -3.8421         0.0021        -2.4470
         0.5487      2259.7800         0.0024        92.3959       -31.5680         0.0012        20.2764       -28.9552        57.0973        33.5744        20.5722
         0.5700      2175.2000         0.0006       206.9299        14.1099        -0.0129        73.6756        62.9498        45.5241       103.0178        70.4973
         0.7223      1716.4600         0.0001        -4.0212        -6.1095         0.4976        -3.2110        -1.8081        -1.2963        -6.1083        -3.0709
         0.7269      1705.7500         0.0003        -0.0299        -0.1842        47.3543        15.7134        34.7670        44.0431        -0.0897        26.2401
         0.7640      1622.8200         0.0000         0.1045        -0.0030        22.1306         7.4107         3.5614         3.7756         0.0594         2.4655
         0.8381      1479.4000         0.0004        35.1225       -19.0107        -0.0064         5.3684        -6.5996        20.8667         4.5512         6.2728
         0.8454      1466.5700         0.0030       420.1631        36.7645        -0.0049       152.3076        30.3154       231.9927       286.5280       182.9454
         0.9547      1298.6700         0.0017        -0.0204         0.0031      -250.4664       -83.4946      -163.5637      -157.4117        -0.0035      -106.9930
         1.0170      1219.0600         0.0009         0.0284         0.0006       227.5631        75.8640       139.5955       149.2761        -0.0001        96.2905
         1.0349      1197.9800         0.0003       -78.3068         5.9315         0.0248       -24.1168        -5.3142       -54.6792       -58.3830       -39.4588
         1.0717      1156.9000         0.0000        -0.0041         0.0003         2.5899         0.8620       -33.0433       -29.6378         0.0018       -20.8931
         1.1157      1111.2600         0.0000        19.8823       -11.8678         0.0283         2.6809        -1.4676        21.3190        14.6114        11.4876
         1.1460      1081.9300         0.0004        -0.0587        -0.0142       -67.6110       -22.5613       -60.0421       -27.2598        -0.0345       -29.1121
         1.1542      1074.2000         0.0002       -21.9785         2.0136        -0.1978        -6.7209         4.1097       -15.0895        -6.8109        -5.9302
         1.1948      1037.7100         0.0043       603.3558        -5.0423         0.0076       199.4403        -7.6559       404.7028       391.7690       262.9387
         1.2241      1012.8400         0.0005         0.0319        -0.0027      -404.4317      -134.8008      -200.2631      -192.7887         0.0132      -131.0129
         1.3450       921.7900         0.0025      -144.5954        29.1058        -0.0094       -38.4997        25.4053       -89.9210       -65.4191       -43.3116
         1.4163       875.4000         0.0011       -90.8981        35.3653         0.0095       -18.5078        19.8032       -44.4702       -36.2661       -20.3111
         1.4194       873.5100         0.0026      -272.7967         0.8789         0.0029       -90.6383        -0.3264      -147.0224      -152.3797       -99.9095
         1.4553       851.9700         0.0015       -83.4591        75.6863        -0.0928        -2.6219        36.5305       -51.5055       -20.1267       -11.7006
         1.4797       837.9300         0.0004        18.6791        35.4365         0.0349        18.0502        23.5983         6.1658        37.8063        22.5235
         1.4905       831.8000         0.0000         0.0109         0.2224       -25.1270        -8.2979       -15.4170       -10.9063         0.1453        -8.7260
         1.5702       789.5900         0.0047       -33.8271        -0.9846        -4.5698       -13.1271         0.0551       -21.2329       -22.0322       -14.4033
         1.5743       787.5700         0.0353      -254.1883        -9.1001        -0.9177       -88.0687         7.8930      -148.5160      -167.8394      -102.8208
         1.6392       756.3600         0.0001        -0.4740         0.5244        71.5440        23.8648        83.3003       102.3543        -0.4323        61.7408
         1.6443       754.0300         0.0028       -22.9443        -1.8392         1.9337        -7.6166       -13.8671        -9.8008       -22.9084       -15.5255
         1.6786       738.6000         0.0031         0.0096         0.0245      -387.5393      -129.1684      -211.7959      -224.0540         0.0141      -145.2786
         1.7042       727.5100         0.0000         0.0840        -0.0102         1.5690         0.5476        -4.0186        -3.3517         0.0378        -2.4442
         1.7420       711.7500         0.0108       103.2823        -5.8933        -0.1923        32.3989        -5.4206        49.6364        64.0338        36.0832
         1.7634       703.1100         0.0007         0.1147         0.0463       -43.2977       -14.3789       -29.6672       -17.4247         0.0886       -15.6678
         1.7950       690.7400         0.0011        -0.3086        -6.5748        -0.1096        -2.3310       -15.2950         4.2979         2.8201        -2.7257
         1.8025       687.8300         0.0072        -8.5657        72.9373         0.0138        21.4618        56.2577       -23.3764        49.5077        27.4630
         1.8421       673.0600         0.0000         0.0225        -0.0132       -17.3810        -5.7906       -10.1416        -7.6592         0.0127        -5.9294
         1.9214       645.2900         0.0433       -81.6772        82.9942         0.1977         0.5049        39.5874       -67.7614        19.8720        -2.7674
         1.9339       641.0900         0.0011         0.0721        -0.0226       115.0061        38.3519        87.5482        46.4784         0.0523        44.6930
         1.9941       621.7400         0.0000        -0.0508         0.0205         1.4041         0.4579         1.9582        -0.3527        -0.0099         0.5319
         2.0216       613.3100         0.0010        60.0027       148.5618        -0.0438        69.5069        89.7720        34.6356       111.5288        78.6454
         2.0476       605.5200         0.0043        -0.1323         0.1157       -11.7791        -3.9319         0.9412       -13.6920         0.0132        -4.2459
         2.0818       595.5500         0.0026        -0.2239         0.7299       -64.0607       -21.1849       -58.5665       -25.2052         0.2521       -27.8399
         2.0926       592.4800         0.0145      -108.2203        57.4170        -0.5685       -17.1239        23.2432       -49.4947       -26.0885       -17.4467
         2.1251       583.4300         0.0000         0.0332        -0.0002        -0.0403        -0.0024         2.5458        -1.5244         0.0149         0.3454
         2.1404       579.2600         0.0120      -102.0498        56.8139        -0.0106       -15.0822        37.2150       -62.0661       -27.9153       -17.5888
         2.2206       558.3300         0.0027         0.7055        -0.1738       178.7742        59.7686       107.0396        94.9846         0.3224        67.4489
         2.2259       557.0200         0.0280       179.7267      -124.7516         0.3607        18.4452      -103.9407       116.1926        29.6579        13.9699
         2.2367       554.3100         0.0019        24.8042        31.8482         0.0148        18.8891        35.0387         4.4913        38.5323        26.0208
         2.2731       545.4300         0.0002         0.0197         0.0301       -71.8004       -23.9169       -40.8619       -28.0397         0.0305       -22.9570
         2.2845       542.7100         0.0000         0.0074        -0.2303       -14.6364        -4.9531       -27.2148       -17.2559        -0.1212       -14.8639
         2.3082       537.1500         0.0109       117.2506      -174.3349         0.0454       -19.0130       -92.2636        53.6539       -43.1016       -27.2371
         2.3664       523.9400         0.0001         0.0038         0.0021        24.8989         8.3016        -2.1437        -1.0193         0.0022        -1.0536
         2.3926       518.2000         0.0003        16.8247        -3.6793        -0.0007         4.3816       -14.0741        12.0595        -4.1871        -2.0672
         2.4080       514.8900         0.0002         2.1583        10.4943         0.3226         4.3251         4.1042         0.8566         7.7340         4.2316
         2.4293       510.3700         0.0000         0.0096         0.0064         0.8248         0.2802        -0.5862        -0.7855         0.0029        -0.4563
         2.4461       506.8600         0.0007         0.2593         0.0177       229.7352        76.6707       103.2292        79.5490         0.1396        60.9726
         2.4482       506.4300         0.0001        -0.0059        -0.0462        -8.4429        -2.8317        -7.3508        -2.7596        -0.0467        -3.3857
         2.4773       500.4800         0.0078        -0.0004        93.9882        -0.2637        31.2414        65.0461        -0.6445        36.6672        33.6896
         2.4910       497.7300         0.0233        50.7520        17.2672         0.6607        22.8933        28.1883        -0.7220        45.7791        24.4151
         2.4985       496.2300         0.0003        -0.2436        -0.2442       -21.3012        -7.2630       -30.0024       -20.6208        -0.1933       -16.9388
         2.5201       491.9800         0.0116        -0.0447        -0.3903      -191.7784       -64.0711      -126.0686       -71.1368        -0.2383       -65.8146
         2.5760       481.3000         0.0003         0.0262         0.1702      -120.1129       -39.9722       -62.8957       -44.5601         0.0880       -35.7893
         2.5903       478.6600         0.2431       112.7606        52.8700         0.3679        55.3328        28.0379        92.9616        43.6671        54.8889
         2.6053       475.8800         0.0015        -0.0330        -0.4076       -84.9372       -28.4593       -45.0859       -48.7147        -0.1760       -31.3255
         2.6287       471.6600         0.0123         0.0018        -2.0012       101.0209        33.0072        35.3116        74.6331        -0.7885        36.3854
         2.6369       470.1800         0.0472       -48.4390      -815.9552         0.1144      -288.0933      -521.9696        -5.4105      -358.7918      -295.3906
         2.6800       462.6300         0.0007         0.0423        -0.4076        93.0451        30.8933        79.2861        29.9287        -0.2149        36.3333
         2.7094       457.6100         0.0004         0.0807         5.1838         3.5694         2.9446         8.4282         2.6548         2.2154         4.4328
         2.7151       456.6500         0.0484       -12.2460       558.0619        -1.0082       181.6026       330.1472       -11.3110       241.5133       186.7832
         2.7374       452.9200         0.0167         0.0224        -0.0539       555.4271       185.1319       400.4813       193.0092        -0.0031       197.8291
         2.7601       449.2100         0.0415         0.0792        -0.1774      -323.0463      -107.7149      -299.8234       -31.8566         0.0057      -110.5581
         2.7659       448.2600         0.0055         0.1367       -99.7560        -0.1757       -33.2650       -39.1488         0.0484       -60.2898       -33.1301
         2.7905       444.3100         0.0294       -91.2729       -75.0802        -0.0178       -55.4570       -39.3759       -40.2123       -95.6736       -58.4206
         2.8079       441.5600         0.0006         1.0493        -0.7036       -56.0780       -18.5775       -40.1737       -32.1731         0.0639       -24.0943
         2.8235       439.1200         0.0303       255.7238      -253.2829        -0.1879         0.7510       -97.9446       148.9027       -68.9806        -6.0075
         2.8402       436.5400         0.0048         0.1569         0.0522       201.8388        67.3493       118.7846       102.9706         0.1122        73.9558
         2.8475       435.4200         0.0354       -80.4926       373.6772         0.1941        97.7929       265.3204       -30.7811        99.9062       111.4819
         2.8953       428.2200         0.0042         0.0150        -0.0327       268.2331        89.4052       183.5886       111.9024         0.0130        98.5013
         2.9422       421.4000         0.0598       -37.8802       -17.2347         0.0152       -18.3666       -55.0756       -29.5226        25.6910       -19.6357
         2.9720       417.1700         0.0054       -10.2057       -28.5591       -10.6999       -16.4882       -32.3182        -5.9711       -18.2502       -18.8465
         2.9733       416.9900         0.0194       -54.1443      -175.8454        -2.1493       -77.3797      -151.9812       -10.8553      -103.0525       -88.6297
         2.9966       413.7500         0.1246       230.3953      -302.9022         0.0351       -24.1573      -197.9820       104.6715        25.7245       -22.5287
         3.0224       410.2100         0.0234         0.0953        -0.2574       195.8851        65.2410       170.0970        60.6778        -0.0104        76.9215
         3.0296       409.2400         0.0264         0.9552         3.7762         0.2153         1.6489         3.6605        -0.2010         2.7907         2.0834
         3.0576       405.4900         0.0001        -0.0054        -0.0929       -29.9762       -10.0248       -13.6971        -7.2447        -0.0313        -6.9910
         3.0773       402.9000         0.0223       -28.8773        74.7377        -0.0046        15.2853        72.2888       -13.2275        -1.8664        19.0650
         3.1015       399.7500         0.0638         1.7273        -0.2585       138.5286        46.6658        27.5096       129.1996         1.2180        52.6424
         3.1051       399.3000         0.2615        59.4124        -3.4465         1.8805        19.2821        -5.4558        26.0185        39.5727        20.0452
         3.1312       395.9600         0.0123         8.7006      -185.6201         2.5772       -58.1141      -150.7337        14.4157       -73.3266       -69.8815
         3.1349       395.5000         0.0064         0.9300        -8.0724       117.8133        36.8903        80.5932        70.1237        -3.5530        49.0546
         3.1447       394.2700         0.5508       224.4011       251.9503        -0.0343       158.7724       248.3527        33.0582       229.1774       170.1961
         3.1560       392.8500         0.0013         0.4449         0.0382       -17.6432        -5.7200       -10.5738        -5.1618         0.2063        -5.1764
         3.1829       389.5400         0.0397      -121.5158      -178.3158         0.0316       -99.9333       -94.9560       -53.6397      -170.6383      -106.4113
         3.1991       387.5600         0.0007        -0.3253        -0.0868        30.3450         9.9776        20.0281        11.3110        -0.1603        10.3930
         3.2084       386.4400         0.0417       -79.6950       -93.4396        -0.0988       -57.7445       -77.4988       -31.9019       -93.5016       -67.6341
         3.2466       381.8900         2.1581      -780.9729      -146.4264         0.0006      -309.1329       -94.8179      -604.0483      -246.6743      -315.1802
         3.2767       378.3800         0.0071        -0.1346        -0.0086       -85.0649       -28.4027        -7.6592       -90.5875        -0.0310       -32.7592
         3.3165       373.8400         0.0021         0.0057         0.0041        36.1934        12.0677        32.3681         4.4471         0.0163        12.2772
         3.3273       372.6300         0.0834      -275.2773       -43.8747        -0.0163      -106.3894       -55.1068      -120.4967      -163.1035      -112.9023
         3.3347       371.8000         0.0267         6.9409        73.0300        -0.0042        26.6556        57.3601        22.9082        -1.1389        26.3765
         3.3479       370.3300         0.0001        -0.0116         0.0119        -0.4325        -0.1441        -1.0216         0.1471        -0.1072        -0.3272
         3.3621       368.7700         0.0110        38.0145       -99.5289         0.0090       -20.5018       -59.7653        11.7037       -15.5587       -21.2068
         3.3768       367.1700         0.0772      -249.9021         2.0203        -0.0220       -82.6346        -3.9930      -132.0994      -104.9612       -80.3512
         3.4070       363.9100         0.2036         0.5208        29.7727        -0.1359        10.0525        16.8911        -0.7054        21.3448        12.5102
         3.4296       361.5100         0.0049        -0.1858         0.0004      -102.6502       -34.2785      -116.7033       -12.2708        -0.1815       -43.0519
         3.4321       361.2500         0.0130        -2.4121         1.9915        -0.3624        -0.2610        29.5343        -1.8463       -28.4723        -0.2614
         3.4386       360.5700         0.0009         0.1009         0.0848       -20.1967        -6.6703        -0.1059       -26.2266         0.0962        -8.7455
         3.4462       359.7700         0.0052        -0.0253         0.0322      -105.8821       -35.2917      -104.4276       -23.5670        -0.0262       -42.6736
         3.4615       358.1800         0.0069        15.5918        15.4680        -0.0347        10.3417        18.8001         0.5137        11.3811        10.2316
         3.4718       357.1200         0.0041         7.0459        52.5845       -11.5368        16.0312        37.7964       -12.4054        29.2060        18.1990
         3.4719       357.1000         0.0032        -5.3244        68.6659        -5.8497        19.1639        46.5597       -11.2235        34.6164        23.3175
         3.4991       354.3300         0.0065         1.4494       -95.6752        -0.2295       -31.4851       -53.7159         0.2765       -53.3688       -35.6027
         3.5110       353.1300         0.0320        87.2645        27.5500        -0.1339        38.2269        38.5762        38.4318        37.8402        38.2827
         3.5188       352.3500         0.0006        -0.0661        -0.2205       -11.4181        -3.9016        -4.5068        -5.0475        -0.1314        -3.2286
         3.5258       351.6500         0.0276       112.2583       -23.1574         0.0047        29.7019       -36.2993        56.4085        53.9426        24.6839
         3.5352       350.7100         0.0367         0.0180        -0.2649      -246.0634       -82.1034      -158.2065      -107.5288        -0.1812       -88.6388
         3.5523       349.0200         0.0140       131.6691       -43.8616         1.5221        29.7765       -25.2465        69.8534        37.6859        27.4309
         3.5580       348.4700         0.0032         0.4160        -0.1398       103.4015        34.5592        49.3614        77.6774         0.1579        42.3989
         3.5694       347.3500         0.0015        -0.1474         0.0336        -3.5095        -1.2078        43.9243       -48.6856        -0.0429        -1.6014
         3.5903       345.3400         0.0060       -10.6749       -16.9961         0.0664        -9.2015        -4.4057        -5.0418       -15.5413        -8.3296
         3.5932       345.0500         0.0023         2.5510        -0.0666        40.1362        14.2069        25.0796        17.6587         0.7765        14.5049
