             eV             nm  Absorbance(f)     XX(length)     YY(length)     ZZ(length)      R(length)   XX(velocity)   YY(velocity)   ZZ(velocity)    R(velocity)
         0.4330      2863.0700         0.0004        75.3574         2.7760        -9.5681        22.8551        -4.7558        23.9174        30.3525        16.5047
         0.4950      2504.7500         0.0001        -4.9238         0.4467       -43.4306       -15.9692       -25.1787       -25.3581         9.6160       -13.6403
         0.5417      2288.6100         0.0002        -0.3156       -77.9125         7.2597       -23.6562       -52.6058         3.6316       -59.3544       -36.1095
         0.5795      2139.4700         0.0012        71.7832         0.5342       -12.7206        19.8656        -8.3982        35.3374        40.8848        22.6080
         0.6139      2019.5300         0.0029       341.2081       116.8190       -35.7181       140.7697        78.1623       215.5480       341.2934       211.6679
         0.6269      1977.7500         0.0023       222.8375        -0.8175       -49.3254        57.5649       -24.1622        93.2447       118.4701        62.5175
         0.6584      1883.1000         0.0003       -30.7647        52.5487       -45.2088        -7.8082         0.5385       -44.1920         1.8590       -13.9315
         0.7292      1700.2900         0.0011       -40.6179        61.6751        16.8501        12.6358        21.8741       -21.6049         5.8555         2.0416
         0.7699      1610.4600         0.0022       128.0138       -19.3030         5.8610        38.1906        -0.2682        55.1950        56.1706        37.0325
         0.7999      1550.0900         0.0002       -14.8545       -29.9385        -7.8427       -17.5453        -9.6793        -9.4741       -21.1463       -13.4333
         0.8419      1472.7500         0.0003         4.8465       -36.5245       -11.6984       -14.4588       -13.7857        -0.3185        -6.3158        -6.8067
         0.9333      1328.4900         0.0005        68.4200         1.3105         2.3709        24.0338         1.6481        45.4178        45.7787        30.9482
         0.9766      1269.6000         0.0010       -25.6752         5.6360         4.3044        -5.2449        -4.1751       -19.4222       -18.3047       -13.9673
         0.9930      1248.6000         0.0022        78.2613        -1.1226        -0.2411        25.6325        -1.1568        58.7882        53.3740        37.0018
         1.0466      1184.6500         0.0001         0.9876         0.2450        -3.1074        -0.6250        -4.4587        -3.6330         2.3911        -1.9002
         1.0796      1148.4700         0.0014      -155.0775       -61.4844         5.0081       -70.5180       -45.0167       -90.6038      -136.7244       -90.7816
         1.1233      1103.7700         0.0012       -47.0822        24.1172        -3.0482        -8.6710        17.1376       -27.1143        -4.4801        -4.8189
         1.1655      1063.8200         0.0027        36.8422       -14.6483        12.2689        11.4876        -5.6670        18.6294        10.8227         7.9284
         1.1853      1046.0000         0.0093      -289.8531        23.4347         1.1358       -88.4275        12.2409      -179.0155      -184.9560      -117.2435
         1.1923      1039.8500         0.0016      -106.6148        16.1026        -8.1574       -32.8899         2.4115       -67.7982       -32.8170       -32.7346
         1.2481       993.3500         0.0003        23.6202        17.1456         0.1130        13.6263         7.2854        20.0959        31.5848        19.6554
         1.2556       987.4800         0.0007        57.2189         4.2594        10.1956        23.8913        10.9812        25.2461        28.5771        21.6015
         1.2747       972.6900         0.0009       -15.2834       -84.5035        46.1178       -17.8897       -26.9695        14.6058       -58.0136       -23.4591
         1.3155       942.5100         0.0035       -44.4003         1.4390         7.2320       -11.9098        14.1337       -16.3851       -15.3203        -5.8573
         1.3397       925.4500         0.0025        15.7818       -41.4608         8.0309        -5.8827       -29.8153        13.2061       -12.6618        -9.7570
         1.3699       905.0400         0.0023        25.2299        -3.9597        73.6223        31.6309        48.0662        51.4224         4.2474        34.5787
         1.3896       892.2500         0.0015        -8.6532         8.2004       -42.3995       -14.2841       -39.4054       -31.9589       -14.6076       -28.6573
         1.3990       886.2600         0.0005        38.5944        -5.9686        16.4392        16.3550        10.9016        25.0159        11.4853        15.8009
         1.4190       873.7300         0.0041        22.5946       -13.2962        49.4341        19.5775        17.5272        55.7459         1.7138        24.9957
         1.4325       865.5300         0.0029       -49.2586        13.1849        -7.2907       -14.4548        -6.0702       -23.8844       -11.6862       -13.8803
         1.4646       846.5600         0.0023       -46.9941        -9.3104       -16.2593       -24.1879       -13.0692       -30.8250       -34.8339       -26.2427
         1.4931       830.3900         0.0007         1.9445      -110.0914         3.1674       -34.9932       -66.4997        -3.2500       -60.1104       -43.2867
         1.5149       818.4400         0.0059        73.8677       -13.2002        -1.3508        19.7722        -1.4028        45.1108        31.4364        25.0481
         1.5930       778.2900         0.0101       -77.3161        -0.0132       -22.4405       -33.2566       -38.4690       -57.7716       -39.9895       -45.4100
         1.6025       773.7000         0.0063      -166.1702        13.0343        86.4111       -22.2416        41.1046       -78.1097       -76.3662       -37.7904
         1.6246       763.1700         0.0031         3.7508        40.3614        37.2232        27.1118        48.1507        18.2426        27.1137        31.1690
         1.6340       758.7600         0.0042        53.2157        17.7901       -14.2983        18.9025        -1.2312        22.9696        37.0023        19.5802
         1.6599       746.9600         0.0003       -20.2829         7.5820         2.3740        -3.4423        -5.4449       -25.4641        -0.2555       -10.3881
         1.6925       732.5700         0.0008        46.1341        -1.4200        -6.7598        12.6514        -8.5266        22.2090        27.6753        13.7859
         1.6975       730.3800         0.0109      -318.7144       -17.4693        -2.5061      -112.8966       -12.1395      -190.9988      -159.7397      -120.9594
         1.7606       704.2100         0.0050        93.0844         3.2993       -20.1116        25.4240        22.1863        49.1146        75.3886        48.8965
         1.7657       702.1800         0.0014        15.6036       -77.0770        57.1449        -1.4428        -9.8887        39.9328       -26.6272         1.1390
         1.8002       688.7200         0.0127      -133.4098        -9.0848         7.2357       -45.0863        -2.8711       -69.6733       -76.4591       -49.6678
         1.8254       679.2400         0.0110       131.4607       -64.8651       -19.9162        15.5598       -56.0750        72.1732        40.5425        18.8803
         1.8494       670.3900         0.0127        67.9298        47.6793        12.2320        42.6137        37.6872        74.3895        25.2335        45.7701
         1.8638       665.2200         0.0091       230.9541       -56.1676       -54.0005        40.2620       -48.5038        89.4184        93.9009        44.9385
         1.8932       654.9100         0.0116       210.9232        17.4369        22.5915        83.6505        27.1916       113.3824       133.9657        91.5132
         1.8968       653.6500         0.0002         0.3789       -15.3053        -8.9820        -7.9695       -21.4104        -8.6031        -5.5360       -11.8498
         1.9242       644.3300         0.0002       -22.3282         3.5429        29.4158         3.5435        13.9499        -7.2243        -6.3841         0.1138
         1.9421       638.4000         0.0018       -21.5444       -25.2665         8.0675       -12.9145       -13.9399        -4.0767       -33.8054       -17.2740
         2.0016       619.4300         0.0014        16.5242        74.5099         5.3649        32.1330        35.5517        18.3339        37.3165        30.4007
         2.0057       618.1600         0.0065       -80.1908         2.5806        55.8653        -7.2483       -12.9548       -54.2060       -43.2799       -36.8136
         2.0391       608.0500         0.0061        30.1322      -197.4891         0.7210       -55.5453      -126.2532        15.2759       -77.6746       -62.8840
         2.0436       606.6900         0.0269         6.8116       -46.3572       -33.5135       -24.3530       -38.6996        -4.8132       -31.3882       -24.9670
         2.0656       600.2300         0.0049       -56.7281         0.2661         8.7400       -15.9073         0.8673       -20.1014       -33.9396       -17.7246
         2.1019       589.8700         0.0029        25.0472       -22.5075        26.2811         9.6070         0.0320        25.2622        -0.8609         8.1444
         2.1238       583.8000         0.0021        65.2298         4.3256         2.0535        23.8696         5.7768        30.8740        46.4646        27.7051
         2.1242       583.6700         0.0056       -33.2252         7.0186       -41.3808       -22.5291       -24.2578       -38.3595        -9.8509       -24.1561
         2.1436       578.4000         0.0079        38.6993       -65.9187      -148.5618       -58.5937      -144.2328       -68.7629        14.5497       -66.1487
         2.1553       575.2400         0.0097       -64.7374        33.1674       -56.8726       -29.4809        -0.8687       -73.3480       -14.6201       -29.6123
         2.1918       565.6800         0.0364      -215.0917        19.4302       -56.7385       -84.1333       -25.8058       -78.6781      -148.2936       -84.2592
         2.2124       560.4100         0.0020       -11.0471        14.2795        -2.0438         0.3962        10.0658        -8.8480         0.0406         0.4195
         2.2323       555.4000         0.0088        47.7171         6.1752       -16.5439        12.4495        -9.2551        35.9769        13.5911        13.4377
         2.2459       552.0500         0.0096       123.7857       -24.2111       -11.7072        29.2891         2.5189        64.2372        63.9833        43.5798
         2.2603       548.5400         0.0049       -23.8757        20.1567        30.5324         8.9378        24.0085        -4.5802        -5.5708         4.6192
         2.2819       543.3500         0.0050        -2.9561        56.8271         1.9205        18.5972        31.7824        -3.0085        24.9144        17.8961
         2.3066       537.5200         0.0162       -57.5596      -136.9026        35.9275       -52.8449       -76.7918        -1.9068      -108.9579       -62.5522
         2.3105       536.6100         0.0021        -2.6892        25.5551       -61.8149       -12.9830       -42.5204       -48.3540         6.5337       -28.1136
         2.3162       535.3000         0.0020        61.2955        37.3311        -0.1220        32.8349        47.7237        23.7458        66.3888        45.9528
         2.3644       524.3900         0.0039        51.3211      -118.3707        73.3687         2.1064       -19.4857        56.7520       -36.1557         0.3702
         2.3895       518.8700         0.0687        80.8591      -147.5258       -10.7713       -25.8127       -96.1020        65.5238       -55.0160       -28.5314
         2.3967       517.3100         0.0128       -54.8750       -15.5590       -14.8716       -28.4352       -22.2759       -25.0611       -40.5924       -29.3098
         2.4267       510.9200         0.0051         9.2324        15.9169        -6.8012         6.1160         3.7664        11.3308         7.1289         7.4087
         2.4513       505.7800         0.0066       -54.8367        -2.4195         6.1542       -17.0340         6.5095       -13.1242       -42.8318       -16.4822
         2.4634       503.3100         0.0336       -35.9512       -49.4152        62.4647        -7.6339        -3.2412         0.6336       -38.5973       -13.7350
         2.4857       498.8000         0.0117       -34.0966       -13.7849      -110.0221       -52.6345       -40.4448       -44.1296       -17.2264       -33.9336
         2.5076       494.4400         0.0060         4.5447        -4.8904         1.1420         0.2654        -1.0181         4.5777        -0.8120         0.9158
         2.5264       490.7600         0.0822        94.5738       -85.5656         6.0317         5.0133       -76.2632        41.7318         8.1703        -8.7870
         2.5433       487.4900         0.0029       -45.2257       -10.1821        17.4928       -12.6383        16.7582       -21.4308       -13.2773        -5.9833
         2.5612       484.0800         0.0400       -37.4040        -1.0353       550.7243       170.7617       394.3313       211.2741       -20.6827       194.9742
         2.5905       478.6000         0.0064        -1.2513        79.9331        62.6782        47.1200        85.8892        25.2061        14.6887        41.9280
         2.5986       477.1200         0.0110        29.8669        44.0365        24.4795        32.7943        44.1546        21.0509        32.7559        32.6538
         2.6092       475.1800         0.0324       -66.9054       -68.3910       -57.3558       -64.2174       -92.3821       -75.3070       -39.9752       -69.2215
         2.6212       473.0000         0.0075         3.9496        24.4923       -33.0062        -1.5214       -19.7679         4.4895         9.3676        -1.9703
         2.6333       470.8400         0.0098        29.3044        29.7717        12.2332        23.7698        23.4962        65.3719       -16.3592        24.1697
         2.6525       467.4300         0.0040        -7.0667        25.9576        13.2195        10.7035        22.5427         1.0487        11.9073        11.8329
         2.6608       465.9700         0.0142       -32.7315      -396.4882       -85.5959      -171.6052      -316.0221       -43.5629      -190.4756      -183.3535
         2.6827       462.1700         0.0164        27.1421      -186.8319       -28.3426       -62.6775      -126.3018         1.1976       -62.6704       -62.5916
         2.6979       459.5600         0.0763      -156.4688       270.7180       -27.7875        28.8206       192.5268       -67.7965       -19.1448        35.1951
         2.7118       457.2100         0.0359       122.0250      -112.6421        28.2116        12.5315       -53.7441        59.7466        34.4198        13.4741
         2.7286       454.3900         0.0037        11.1761       281.3481       -45.5416        82.3276       150.3496        -7.1242       112.8151        85.3468
         2.7341       453.4800         0.0324        94.9844       232.1957       -46.1094        93.6902       115.3225        45.4166       139.2318        99.9903
         2.7483       451.1300         0.0609       108.6071        86.9148      -147.4136        16.0361       -72.0058        28.0503        76.7943        10.9463
         2.7646       448.4700         0.0211       -14.0524       108.5594       112.2339        68.9136       132.2778        56.5542        29.6155        72.8158
         2.7714       447.3600         0.0339         0.9816        12.9254        77.0508        30.3192        77.2891        70.0823       -36.7563        36.8717
         2.8023       442.4400         0.3925       348.8241        19.2849        -9.7096       119.4665        12.3029       122.0319       226.7579       120.3643
         2.8044       442.1100         0.0717        49.4636        87.8758       217.6087       118.3160       185.1808       124.2027        53.8945       121.0926
         2.8223       439.3100         0.0562       325.6981        28.0306         5.6075       119.7787        41.4526       153.1213       173.3150       122.6296
         2.8331       437.6300         0.0605       131.8593       -17.8354       162.4589        92.1609        81.5400       149.5834        45.1809        92.1014
         2.8524       434.6700         0.0023        10.1770       -18.7266        -6.5661        -5.0386       -18.7213         2.0503        -4.2160        -6.9623
         2.8667       432.5000         0.0023         2.7118         3.0161       -32.1273        -8.7998       -24.4499       -12.1383         7.3089        -9.7597
         2.8757       431.1400         0.8371       296.8221         2.9836        57.2020       119.0026        16.2776       221.5947       126.3753       121.4158
         2.8912       428.8300         0.1194        -6.3271        40.6797         0.1603        11.5043        37.2316         0.3226        10.6954        16.0832
         2.9041       426.9300         0.0572       -59.2811      -101.9414        -5.0072       -55.4099       -50.0933       -48.4220       -78.3686       -58.9613
         2.9106       425.9800         0.1421      -131.7734      -115.9619        90.0645       -52.5569       -26.6129         2.2747      -118.0924       -47.4769
         2.9285       423.3700         0.1130         5.2812       -16.2076       343.4542       110.8426       258.4046        97.1583         6.4843       120.6824
         2.9420       421.4200         0.4102       -60.8697        11.7260        -3.0050       -17.3829        11.9519        32.8459       -85.4605       -13.5543
         2.9612       418.6900         0.0752      -112.9798         4.0963       -57.8179       -55.5671       -44.6745      -122.3860        -5.3140       -57.4582
         2.9813       415.8700         0.2338        97.1626        -3.6053       260.8948       118.1507       165.2592       134.8686        99.4589       133.1956
         3.0238       410.0300         0.0142       -68.3418        36.1360        54.1807         7.3250        70.1153       -15.9361       -17.9278        12.0838
         3.0373       408.2100         0.0858       104.0043       -16.7696      -334.7106       -82.4920      -141.1017      -188.9531        44.4149       -95.2133
         3.0442       407.2800         0.0394      -133.4555       -65.3193        -2.6201       -67.1317       -59.6743       -99.8292       -63.3172       -74.2735
         3.0509       406.3900         0.0819       -66.8462         2.3584       -28.0426       -30.8435        -9.2819       -59.8406       -21.7990       -30.3071
         3.0625       404.8500         0.1959       -64.6874      -159.0025       -40.5030       -88.0643       -85.9782        11.7050      -193.7172       -89.3301
         3.0806       402.4600         0.1483      -197.1701      -152.7298        25.2257      -108.2247       -91.5497       -74.8852      -172.9347      -113.1232
         3.0956       400.5200         0.1898      -267.7371         6.0535         0.6334       -87.0167         9.8086       -69.2147      -200.7038       -86.7033
         3.1058       399.2000         0.0506        28.1920       -52.6666      -136.5883       -53.6876      -149.6546        -7.1384       -21.5119       -59.4350
         3.1118       398.4300         0.1769      -101.7365         3.8252        33.5712       -21.4467        18.3519        -1.9555       -81.2099       -21.6045
         3.1234       396.9500         0.2525       165.2618        32.6385        24.1671        74.0225        33.0030       148.3251        50.1349        77.1543
