             eV             nm  Absorbance(f)     XX(length)     YY(length)     ZZ(length)      R(length)   XX(velocity)   YY(velocity)   ZZ(velocity)    R(velocity)
         0.2178      5692.5600         0.0013       -83.3703        -0.2633       -46.0611       -43.2316       -31.6341       -86.1331       -51.3870       -56.3847
         0.2675      4635.3600         0.0001        11.7074        -1.7967         1.7691         3.8933         1.7619        10.0109         7.0008         6.2579
         0.4628      2679.0000         0.0010        71.9418       -29.0631         9.2779        17.3855         7.8042        54.1819        44.1674        35.3845
         0.6018      2060.2000         0.0008        19.3253        -1.0948        23.7061        13.9789        24.2943        33.8071        16.0686        24.7233
         0.6228      1990.6200         0.0000        -5.8756         7.2488         1.8426         1.0719         5.3387        -0.2060         6.7373         3.9567
         0.6366      1947.5000         0.0026         3.2184         3.6858         0.7272         2.5438         3.2596        -3.1439         9.3971         3.1709
         0.6670      1858.9500         0.0027        -9.2869         5.3446         6.6021         0.8866        15.0769         7.1723        -2.5518         6.5658
         0.6870      1804.7800         0.0014       168.6656         2.0330         1.3022        57.3336         0.0365        95.2797        93.3278        62.8813
         0.7432      1668.2900         0.0066       838.5083        -7.5981       -20.7885       270.0406       -20.6395       539.2328       541.6841       353.4258
         0.7664      1617.8000         0.0002         6.9955       -40.4619        23.0376        -3.4763       -14.7857         1.0532       -57.3536       -23.6954
         0.8325      1489.2400         0.0010         2.9656       -29.1675        -1.2973        -9.1664       -26.3858         0.7090       -25.1164       -16.9311
         0.8490      1460.3500         0.0036      -474.3292        15.9639        -3.0497      -153.8050         8.0839      -290.9815      -291.1190      -191.3388
         0.8848      1401.2300         0.0002       -69.1537         9.4911        10.1320       -16.5102        14.8731       -52.3232       -60.7624       -32.7375
         0.9313      1331.3500         0.0009        77.1931        -1.5137        10.0120        28.5638         3.4101        48.1991        48.2934        33.3008
         0.9430      1314.8300         0.0099       209.6882         4.0187        -5.6752        69.3439         1.9082       127.0730       144.3644        91.1152
         0.9652      1284.5100         0.0005       -15.9463        14.9031         6.1767         1.7112         5.2351       -23.5900        -0.0262        -6.1270
         0.9673      1281.7400         0.0013      -140.9315        -6.9084         5.6912       -47.3829         1.7721       -95.2749       -99.2764       -64.2597
         0.9954      1245.5300         0.0026      -125.0151         7.0043        13.6789       -34.7773        12.0511       -68.4403       -68.2450       -41.5447
         0.9996      1240.2800         0.0031       -50.2488        -1.1618        -0.6422       -17.3510        -4.6565       -39.2634       -24.3945       -22.7715
         1.0264      1207.9800         0.0004        48.3327        27.8053        -0.0579        25.3600        21.6974        40.6063        50.1198        37.4745
         1.0380      1194.5000         0.0020       -52.3366       -23.9955       -27.7289       -34.6870       -40.8315       -40.3000       -59.4715       -46.8677
         1.0598      1169.8300         0.0015        67.6435         6.1366         2.4238        25.4013         0.7813        44.2440        34.2553        26.4269
         1.0718      1156.7400         0.0100        46.0824        16.9052        -2.9744        20.0044        12.6677        11.7035        49.5078        24.6263
         1.1026      1124.4600         0.0004       -16.3073       -71.4370       -25.3124       -37.6855       -39.1821       -19.8165       -39.7498       -32.9161
         1.1247      1102.3500         0.0014        68.7784        -0.7061        -0.3663        22.5687        -0.0577        36.7059        30.8401        22.4961
         1.1453      1082.5100         0.0019       -83.9599         9.4933         0.3503       -24.7054         1.0867       -51.7767       -62.4250       -37.7050
         1.1682      1061.3200         0.0061      -224.4753        12.4703       -13.2685       -75.0912        -8.0678      -143.5579      -100.4411       -84.0223
         1.1903      1041.6100         0.0059      -143.2497       -15.6299        21.3876       -45.8307        -4.3632       -52.9543       -88.2462       -48.5212
         1.2168      1018.9800         0.0011      -121.5382       -32.8370         1.3402       -51.0117       -15.6391       -77.3650       -85.5359       -59.5134
         1.2529       989.6000         0.0011       -25.6179        -0.0604        42.8568         5.7262        17.7089        11.6990       -24.1273         1.7602
         1.2657       979.6000         0.0011        28.0026        27.0874       -13.8123        13.7592         5.0640        10.8957        29.9099        15.2898
         1.2796       968.9000         0.0002        -3.6362        -0.7762        -0.4521        -1.6215        -0.3847        -3.1688        -1.3409        -1.6315
         1.3355       928.4000         0.0007       -14.0653        -2.3905        -8.0426        -8.1661       -10.1162       -16.0249        -9.6697       -11.9370
         1.3666       907.2200         0.0008        -7.7758       -46.0361       -67.7487       -40.5202       -76.3781       -34.5240       -30.9836       -47.2952
         1.3898       892.1200         0.0006         6.2630       -33.0345       -34.6083       -20.4599       -42.1877       -14.7546        -7.8309       -21.5911
         1.3943       889.2300         0.0008        46.0859         4.1568       -27.2584         7.6614        -8.9446        14.7464        29.1168        11.6395
         1.4071       881.1500         0.0007         1.8363       -13.6103        -2.7508        -4.8416       -11.7390         0.6773        -3.0788        -4.7135
         1.4293       867.4400         0.0009        -9.9896        49.1734         0.0845        13.0894        40.2161        -5.7104        20.9086        18.4714
         1.4353       863.8300         0.0002         4.2858       -50.7780       -30.8355       -25.7759       -59.1604       -13.8215       -27.8615       -33.6145
         1.4654       846.0700         0.0009        63.1450       -47.7018        30.9878        15.4770        -4.2615        32.5959        -9.2201         6.3715
         1.4704       843.2200         0.0016        43.2891        13.8586       -14.1656        14.3273        -5.1255         7.7909        28.3764        10.3472
         1.5041       824.3200         0.0002         0.4739        -1.2809       -15.0209        -5.2759       -10.9880        -7.0911        -0.2272        -6.1021
         1.5134       819.2200         0.0012       -24.6796       -11.8805         2.6867       -11.2911        -1.0816       -10.9863       -19.4258       -10.4979
         1.5203       815.5100         0.0021        29.5340        -4.9386         4.1729         9.5894        -3.0719        22.2421         5.0115         8.0606
         1.5534       798.1700         0.0003         6.1835         0.7211         0.4268         2.4438         0.9316         4.6872         4.2659         3.2949
         1.6154       767.5100         0.0016         4.9677        21.3978         2.2503         9.5386        18.7126        -0.7007        19.7988        12.6036
         1.6442       754.0700         0.0112        36.9768        24.1431      -130.8477       -23.2426       -97.7364       -64.8719        27.0354       -45.1910
         1.6668       743.8400         0.0030       125.9068        -2.5872         7.3767        43.5655        -0.0444        76.4604        60.3290        45.5817
         1.6863       735.2600         0.0132      -234.9731        -7.1329       -10.4684       -84.1915       -16.7015      -144.8794      -117.1411       -92.9073
         1.6966       730.7700         0.0028        94.8286        -9.4235       -69.3684         5.3456       -58.3693       -10.1588        46.7768        -7.2504
         1.7279       717.5600         0.0025        46.1496        17.3807         2.7975        22.1093        12.5416        27.9228        30.4884        23.6509
         1.7361       714.1700         0.0082       214.8790       -22.5401       -72.9613        39.7926       -43.9688        98.1329        98.4452        50.8698
         1.7464       709.9300         0.0017       -37.7032       -27.9460        75.6164         3.3224        34.3946        19.6259       -30.6041         7.8054
         1.7653       702.3500         0.0079       -57.5553         9.6372         0.6314       -15.7623        -0.3928       -34.4462       -19.9660       -18.2683
         1.7795       696.7300         0.0004       -13.0436       -61.4358         0.4945       -24.6616       -47.0612        -8.3131       -36.6955       -30.6899
         1.8014       688.2800         0.0026       -12.4731       185.4260         5.4487        59.4672       131.8041        -2.6148        92.0092        73.7328
         1.8246       679.5200         0.0336      -100.7207       -44.5741        -4.8518       -50.0488       -35.8858       -62.8130       -60.6966       -53.1318
         1.8424       672.9500         0.0036        -1.4037       -49.6514       -60.3522       -37.1358       -54.8751       -33.1789       -28.5843       -38.8794
         1.9013       652.1000         0.0010        -5.6167         6.0772         4.5044         1.6550        17.0533        -0.8666       -10.0727         2.0380
         1.9179       646.4700         0.0039        -7.4934        20.1037       124.6452        45.7518        97.7385        46.8426        11.2448        51.9420
         1.9405       638.9200         0.0022        13.9141       -63.3571        48.6553        -0.2626       -13.3605        24.3443       -23.3728        -4.1296
         1.9516       635.3000         0.0046        52.4052         0.0876        27.6249        26.7059        14.0790        39.9406        33.4322        29.1506
         1.9603       632.4700         0.0007        38.0983       -14.5106        63.0789        28.8889        26.3323        46.9852        17.4108        30.2428
         1.9992       620.1600         0.0103       -70.9043       -14.7285         1.1956       -28.1457       -29.2087       -47.2215       -51.7294       -42.7198
         2.0144       615.5000         0.0006        25.7328        17.8024        79.1577        40.8976        42.4634        35.6505        21.0940        33.0693
         2.0392       608.0100         0.0008         6.5710        11.1513       -12.0695         1.8843         2.3603        -2.8079        11.7655         3.7726
         2.0444       606.4700         0.0019       -10.3416       -31.2212       -15.0547       -18.8725       -32.6896       -12.0632       -23.3908       -22.7145
         2.0547       603.4200         0.0084       -83.7107         0.2636        75.1262        -2.7736        45.3719         7.0299       -62.4039        -3.3340
         2.0674       599.7100         0.0775       501.8660       -54.9788        29.9709       158.9527        -9.7026       290.6873       213.1890       164.7246
         2.0752       597.4500         0.0078       -16.8057         4.1032        28.4578         5.2518        15.3240         4.4555        -3.8772         5.3008
         2.0914       592.8200         0.0101      -119.2284      -179.5163       -25.7593      -108.1680      -108.2022       -59.5607      -137.3415      -101.7015
         2.0999       590.4400         0.0364       261.6090       -30.9113        43.7273        91.4750         3.4800       155.6048       109.8475        89.6441
         2.1300       582.0800         0.0170       232.8188       -97.3552       -21.6933        37.9235       -76.8657        77.5412        97.9712        32.8822
         2.1437       578.3500         0.0056        -4.0262        60.7771       -63.0589        -2.1027        -4.1520       -25.3581        31.5579         0.6826
         2.1478       577.2500         0.0560       -72.4395       -19.8705      -133.5023       -75.2708       -94.1812      -105.6714       -28.8946       -76.2491
         2.1728       570.6200         0.0081       -10.8359        18.4307         8.1467         5.2472        12.7114       -11.2890        12.4255         4.6159
         2.1854       567.3200         0.0054      -101.5292        -8.4392        17.1335       -30.9450        13.1749       -38.6129       -66.7596       -30.7325
         2.2059       562.0700         0.0490       259.8420        22.0985       -23.6139        86.1089        -3.8101       133.5595       115.1710        81.6401
         2.2143       559.9400         0.0090       -14.3866        25.3965      -229.6133       -72.8678      -134.7711      -122.3105        10.7788       -82.1009
         2.2278       556.5300         0.0101        78.7267         0.0959        18.9659        32.5962        15.4987        56.4528        37.0138        36.3218
         2.2411       553.2300         0.0330         1.1281      -114.4672        19.8531       -31.1620       -68.2976        30.2738       -72.5876       -36.8705
         2.2510       550.7900         0.0019       -13.2546       -71.8381         3.2065       -27.2954       -51.6562        -9.5367       -44.5517       -35.2482
         2.2560       549.5600         0.0101       -40.4721        20.6733        55.0056        11.7356        35.2869        13.8277        -6.9839        14.0436
         2.2688       546.4800         0.0062        27.3341       -63.6087       -50.2729       -28.8492       -72.0440       -16.7919       -23.0370       -37.2909
         2.2771       544.4900         0.0147        -6.3455      -113.3038       -22.5648       -47.4047       -85.1320       -20.4634       -50.6860       -52.0938
         2.2993       539.2300         0.0049       -11.1310        40.8571       -14.5062         5.0733        26.0090       -13.4344        35.4720        16.0155
         2.3381       530.2900         0.0231       -39.8797       103.8434        10.4389        24.8009        70.8113       -12.4076        26.6502        28.3513
         2.3492       527.7700         0.0184       -44.4269        42.2049       -16.4542        -6.2254        29.7252       -34.7324         2.8475        -0.7199
         2.3577       525.8600         0.0092        70.2741      -116.9847         1.3552       -15.1185       -83.9752        30.3758       -26.2863       -26.6285
         2.3642       524.4300         0.0043        22.7702       -72.6840       -47.5233       -32.4790       -69.8324       -13.5521       -35.9974       -39.7940
         2.3755       521.9200         0.0529       216.2469        68.0304        23.0455       102.4409        55.0322        89.8015       172.7339       105.8559
         2.3857       519.7100         0.0221       -36.8492         4.6452       -57.7744       -29.9928       -29.9945       -45.7788       -15.2392       -30.3375
         2.3929       518.1300         0.0035       -24.2958       -67.8203        -4.8610       -32.3257       -61.8888       -26.1217       -35.8281       -41.2795
         2.4078       514.9400         0.0165       -67.3731        -5.1487        28.9790       -14.5143        11.1531       -12.7095       -37.3461       -12.9675
         2.4223       511.8500         0.0007         2.4670         9.0164       -87.8386       -25.4517       -45.3185       -32.0552         4.6785       -24.2317
         2.4402       508.0900         0.0339        -9.5545        -4.6771        -6.8389        -7.0235       -12.2947        -4.6410       -13.8026       -10.2461
         2.4731       501.3300         0.0572       128.4827        30.9990         7.0759        55.5192         5.3833        86.0262        65.6918        52.3671
         2.4842       499.0800         0.0018        -0.6301      -178.9123        31.7143       -49.2760       -90.1091        -0.1399       -63.7582       -51.3357
         2.4937       497.1900         0.0120       -73.1177       -20.1849        34.0217       -19.7603        -1.8166       -13.6957       -40.7203       -18.7442
         2.4948       496.9700         0.0046       -16.3213        35.1354       144.6865        54.5002       104.8340        39.1437         3.0037        48.9938
         2.5089       494.1800         0.0482       104.1460        -0.1950       -72.1547        10.5987       -22.9265        50.7150        36.1788        21.3224
         2.5328       489.5200         0.0623      -125.5771        16.3314         1.5429       -35.9009         7.9432       -39.6639       -76.2472       -35.9893
         2.5432       487.5200         0.0018         5.9284        23.3969      -130.9843       -33.8863       -70.0848       -36.7218        15.0092       -30.5991
         2.5544       485.3700         0.0029        35.0239         4.7881        98.0317        45.9479        96.1514        75.7436        11.5073        61.1341
         2.5732       481.8300         0.0147        55.5800        53.1478        31.6128        46.7802        30.7289        60.6215        19.5916        36.9807
         2.5785       480.8400         0.0372       129.6934       -39.7995        18.6762        36.1900       -13.4015        82.2053        48.4049        39.0696
         2.5964       477.5200         0.0002       -10.2043         0.2879         0.8976        -3.0062         5.7703         2.3396        -4.5019         1.2027
         2.6073       475.5300         0.0065       -14.9177        21.6505        34.1809        13.6379        30.5626         5.7097        -2.7041        11.1894
         2.6209       473.0700         0.0140       112.4222       272.4052        -6.3038       126.1746       173.5780        46.7891       143.7348       121.3673
         2.6307       471.3000         0.1065       214.5444        87.6132       -23.5715        92.8620        67.3008       107.5758       108.5509        94.4758
         2.6477       468.2700         0.0499       -15.7067      -163.6776       -19.6044       -66.3296      -114.2084       -29.2099       -52.5917       -65.3366
         2.6598       466.1400         0.0935        66.0430        65.1910        30.7997        54.0112        55.6509        73.0306        25.1222        51.2679
         2.6811       462.4300         0.0423       183.7882         8.0880       483.4482       225.1082       280.9043       256.3419       142.2104       226.4855
         2.6916       460.6300         0.1257      -235.2740       226.7081       -20.4307        -9.6655       134.4309      -142.0340       -15.5463        -7.7165
         2.7083       457.7900         0.0613       112.4738        68.1867         0.0225        60.2276        52.6591        79.9086        50.4382        61.0020
         2.7219       455.5000         0.0111        -5.8237      -222.3652        95.1703       -44.3395       -84.7904        35.7523       -91.0207       -46.6863
         2.7403       452.4500         0.1511      -163.5016        55.6113       132.7075         8.2724       114.4422       -59.0142       -32.2803         7.7159
         2.7477       451.2300         0.0451        12.0355        65.0278      -292.7976       -71.9114      -209.8844       -78.9488        62.4534       -75.4599
         2.7566       449.7700         0.1778       279.2692       -11.7125         1.8431        89.7999       -10.8303       166.4185       109.0802        88.2228
